               GAP de
               energía del Si
Laboratorio:   y el Ge




PRIMERA
                Determinacion
PARTE:         del parametro


    SILICIO
                Medición #1                   Medición #2

                   I (mA)       Voltage (V)     I (mA)      Voltage (V)
                     0.3          0.198           0.3         0.195
                     0.5          0.225           0.6         0.220
                     0.7          0.252           0.9         0.250
                     1.4          0.276           1.7         0.275
                     1.7          0.286           1.8         0.285
                     1.9          0.292           1.9         0.290
                     2.5          0.302           2.5         0.304
                     2.7          0.307           2.9         0.309
                     3.1          0.314           3.1         0.312
                     4.1          0.320           4.1         0.330
                     4.9          0.333           4.9         0.333
                     6.3          0.345           6.3         0.350
                     7.1          0.351           7.1         0.355
                     8.5          0.360           9.6         0.368
                     9.7          0.365           9.7         0.365
                    13.1          0.382           13.1        0.370
                    10.8          0.390           10.8        0.372
                    14.2          0.385           14.3        0.384
                    22.4          0.412           22.4        0.415



   GERMANIO
                Medición #1                   Medición #2

                   I (mA)       Voltage (V)     I (mA)      Voltage (V)
                     0.6          0.001           0.9         0.002
                     0.9          0.005           1.0         0.008
                     1.2          0.015           1.2         0.015
                     1.8          0.033           1.9         0.030
                     2.3          0.046           2.8         0.046
                     3.6          0.051           3.6         0.051
                     3.8          0.053           3.9         0.053
                     4.0          0.057           4.0         0.056
                     4.3          0.058           4.6         0.059
                     4.8          0.060           4.9         0.060
                     6.2          0.076           6.2         0.075
                    15.7          0.121           15.9        0.121
                    29.0          0.134           31.0        0.156
                    42.3          0.170           42.3        0.170
                    63.4          0.207           63.9        0.200
                    95.9          0.236           98.0        0.229



SEGUNDA
                Determinacion
PARTE:         de Eg
SILICIO     
	Medición #1                   Medición #2
              Io(μA)     T(°C)      Io(μA)     T(°C)
              40.8       150        40.6       150
              39.3       149        39.1       149
              38.5       148        38.6       148
              37.2       147        37.2       147
             36.1       146        36.5       146
              35.2       145        35.3       145
              34.1       144        34.0       144
              33.0       143        33.2       143
              31.9       142        32.0       142
              31.0       141        31.1       141
              28.4       140        28.8       140
              27.7       139        27.7       139
              26.5       138        26.7       138
              25.8       137        25.9       137
              24.7       136        24.3       136
              23.6       135        23.4       135
              22.9       134        22.6       134
              22.0       133        22.1       133
              21.1       132        21.0       132
              20.2       131        20.0       131
              18.9       130        18.4       130
              17.1       129        17.0       129
              15.9       128        15.8       128
              15.0       127        14.7       127


GERMANIO   Medición #1           Medición #2
             Io(μA)      T(°C)     Io(μA)      T(°C)
              32.4        150       32.6        150
              31.8        149       32.0        149
              31.0        148       31.0        148
              30.6        147       30.5        147
              29.6        146       29.6        146
              29.0        145       29.0        145
              28.6        144       28.5        144
              28.1        143       28.1        143
              27.5        142       27.1        142
              26.9        141       26.8        141
              26.4        140       26.2        140
              25.7        139       25.8        139
              25.3        138       25.9        138
              24.9        137       24.9        137
              24.5        136       24.5        136
              24.1        135       24.0        135
              23.4        134       23.2        134
              22.3        133       22.6        133
              21.9        132       21.9        132
              21.3        131       21.4        131
              20.5        130       20.8        130
              19.6        129       20.0        129
              19.8        128       19.1        128
              18.5        127       18.5        127
